#XPS-spectrum

#Date/time: 		 2018-12-18__19-42-43


#AK pressure: 	can 	 mbar
#Pass energy: 	54.6 		 eV
#Volt. bias: 	0.0 		 V
#E_Photon: 	1486.7 		 V
#I_Emission: 	10 		 mA
#Counttime: 	12000 		 ms
#Prevoltage: 	90 		 V
#Workfunction: 	5.1 		 eV
#Samples/eV: 	12.5 		 1/s
#TDAC: 	System.Windows.Forms.TextBox, Text: 1.207 		 V
#V_Lens: 	System.Windows.Forms.TextBox, Text: 4000 		 V
#Slope: 	0.0100 		 Samples/eV
#V_Channelt.: 	2800 		 V
#Flow cooling: 	0,0 		 l/min
#Slit: 	B4 	




#E_bind 	 cps 	 E_kin 	 V_hemo


0064.17	12086.37188	1417.43	404119848.0	-1358.14
0064.26	12072.72590	1417.34	412919849.0	-1358.05
0064.32	12104.53995	1417.28	421719853.0	-1357.99
0064.37	11972.72863	1417.23	430519852.0	-1357.94
0064.43	11722.72727	1417.17	439319852.0	-1357.88
0064.50	11595.45718	1417.10	448119850.0	-1357.81
0064.59	11745.45321	1417.01	456919851.0	-1357.72
0064.68	11586.36100	1416.92	465719853.0	-1357.63
0064.77	11404.54675	1416.83	474519852.0	-1357.54
0064.88	11250.00511	1416.72	483319848.0	-1357.43
0064.99	11340.90651	1416.61	492119850.0	-1357.32
0065.07	11031.81818	1416.53	500919850.0	-1357.24
0065.16	10440.90672	1416.44	509719852.0	-1357.15
0065.24	11354.55062	1416.36	518519848.0	-1357.07
0065.33	11154.54165	1416.27	527319851.0	-1356.98
0065.40	11050.00126	1416.20	536119850.0	-1356.91
0065.49	10872.71986	1416.11	544919856.0	-1356.82
0065.58	10445.46760	1416.02	553719845.0	-1356.73
0065.65	10468.17587	1415.95	562519850.0	-1356.66
0065.73	10831.81818	1415.87	571319850.0	-1356.58
0065.82	10418.18063	1415.78	580119851.0	-1356.49
0065.91	10204.54661	1415.69	588919850.0	-1356.40
0066.01	10545.45574	1415.59	597719849.0	-1356.30
0066.10	10499.99642	1415.50	606519852.0	-1356.21
0066.18	10868.18429	1415.42	615319850.0	-1356.13
0066.26	10172.72612	1415.34	624119851.0	-1356.05
0066.34	10322.72375	1415.26	632919854.0	-1355.97
0066.42	10509.09449	1415.18	641719851.0	-1355.89
0066.52	10245.45222	1415.08	650519853.0	-1355.79
0066.60	11181.82072	1415.00	659319851.0	-1355.71
0066.68	10850.00247	1414.92	668119849.0	-1355.63
0066.78	10868.17935	1414.82	676919851.0	-1355.53
0066.91	10999.99625	1414.69	685719854.0	-1355.40
0067.02	11409.08961	1414.58	694519855.0	-1355.29
0067.12	11113.64268	1414.48	703319850.0	-1355.20
0067.19	11581.81029	1414.41	712119856.0	-1355.12
0067.28	11668.18314	1414.32	720919855.0	-1355.03
0067.34	11677.27140	1414.26	729719856.0	-1354.97
0067.42	12345.45735	1414.18	738519854.0	-1354.89
0067.51	12454.54404	1414.09	747319855.0	-1354.80
0067.60	12877.28004	1414.00	756119850.0	-1354.71
0067.68	13859.08776	1413.92	764919852.0	-1354.63
0067.77	14322.73216	1413.83	773719849.0	-1354.54
0067.85	15377.27098	1413.75	782519850.0	-1354.46
0067.94	15495.45455	1413.66	791319850.0	-1354.37
0068.04	16722.72727	1413.56	800119850.0	-1354.27
0068.13	17804.55152	1413.47	808919847.0	-1354.18
0068.20	18595.44821	1413.40	817719850.0	-1354.11
0068.29	20627.26335	1413.31	826519854.0	-1354.02
0068.37	22081.83575	1413.23	835319847.0	-1353.94
0068.47	23327.26212	1413.13	844119851.0	-1353.85
0068.54	25213.63923	1413.06	852919850.0	-1353.77
0068.62	26709.08180	1412.98	861719853.0	-1353.69
0068.68	28909.10076	1412.92	870519850.0	-1353.63
0068.77	30118.39744	1412.83	879319787.0	-1353.54
0068.85	32949.76785	1412.75	888119849.0	-1353.46
0068.95	35204.54145	1412.65	896919850.0	-1353.37
0069.03	37645.44599	1412.57	905719852.0	-1353.28
0069.13	39613.64987	1412.47	914519849.0	-1353.18
0069.22	42368.39847	1412.38	923319804.0	-1353.10
0069.30	44745.18506	1412.30	932119857.0	-1353.01
0069.38	46672.73258	1412.22	940919856.0	-1352.93
0069.46	48000.04364	1412.14	949719848.0	-1352.85
0069.53	49277.22793	1412.07	958519856.0	-1352.78
0069.62	51131.86467	1411.98	967319848.0	-1352.69
0069.70	52077.24906	1411.90	976119852.0	-1352.61
0069.80	54736.41340	1411.80	984919844.0	-1352.51
0069.90	54868.11323	1411.70	993719855.0	-1352.41
0069.99	55945.46726	1411.61	1002519853.0	-1352.32
0070.07	56450.00000	1411.53	1011319853.0	-1352.25
0070.14	56195.48647	1411.46	1020119848.0	-1352.17
0070.23	56513.63636	1411.37	1028919848.0	-1352.08
0070.32	56872.68850	1411.28	1037719854.0	-1352.00
0070.40	56449.98717	1411.20	1046519856.0	-1351.91
0070.47	56636.44730	1411.13	1055319843.0	-1351.84
0070.56	54618.10734	1411.04	1064119855.0	-1351.75
0070.71	52927.30280	1410.89	1072919850.0	-1351.60
0070.86	50200.01711	1410.74	1081719847.0	-1351.45
0070.98	48304.50154	1410.62	1090519855.0	-1351.33
0071.08	46913.64703	1410.52	1099319853.0	-1351.23
0071.15	45431.82334	1410.45	1108119852.0	-1351.16
0071.20	44513.66166	1410.40	1116919847.0	-1351.11
0071.28	43490.87944	1410.32	1125719853.0	-1351.03
0071.35	42327.29678	1410.25	1134519848.0	-1350.96
0071.45	40459.08631	1410.15	1143319849.0	-1350.86
0071.54	39559.07742	1410.06	1152119852.0	-1350.77
0071.62	38836.35922	1409.98	1160919853.0	-1350.69
0071.70	38000.02159	1409.90	1169719848.0	-1350.61
0071.80	37477.26847	1409.80	1178519849.0	-1350.51
0071.90	37190.92177	1409.70	1187319846.0	-1350.42
0071.98	37095.42504	1409.62	1196119853.0	-1350.33
0072.06	37236.36787	1409.54	1204919852.0	-1350.25
0072.14	36827.26017	1409.46	1213719855.0	-1350.17
0072.24	38431.83565	1409.36	1222519851.0	-1350.07
0072.32	38631.80062	1409.28	1231319855.0	-1349.99
0072.40	39690.93164	1409.20	1240119850.0	-1349.91
0072.49	40950.01861	1409.11	1248919846.0	-1349.82
0072.56	41804.50270	1409.04	1257719855.0	-1349.75
0072.66	43468.20158	1408.94	1266519851.0	-1349.65
0072.77	44572.72727	1408.83	1275319851.0	-1349.54
0072.87	45968.17659	1408.73	1284119852.0	-1349.44
0072.98	48349.99451	1408.62	1292919853.0	-1349.33
0073.07	49163.66430	1408.53	1301719848.0	-1349.24
0073.13	50395.46027	1408.47	1310519847.0	-1349.18
0073.21	50454.86080	1408.39	1319319792.0	-1349.10
0073.29	51845.11873	1408.31	1328119849.0	-1349.03
0073.37	52304.50385	1408.23	1336919856.0	-1348.94
0073.47	53609.13964	1408.13	1345719848.0	-1348.84
0073.55	54045.41155	1408.05	1354519855.0	-1348.76
0073.63	53536.38189	1407.97	1363319852.0	-1348.68
0073.72	54204.54545	1407.88	1372119852.0	-1348.59
0073.81	54804.55791	1407.79	1380919850.0	-1348.50
0073.90	53672.73337	1407.70	1389719849.0	-1348.41
0073.99	53968.19408	1407.61	1398519847.0	-1348.32
0074.07	52977.23059	1407.53	1407319854.0	-1348.24
0074.15	53050.01206	1407.45	1416119852.0	-1348.16
0074.24	52668.19379	1407.36	1424919850.0	-1348.07
0074.32	50522.72727	1407.28	1433719850.0	-1347.99
0074.40	49440.90909	1407.20	1442519850.0	-1347.91
0074.48	48313.64734	1407.12	1451319848.0	-1347.83
0074.56	47095.42779	1407.04	1460119853.0	-1347.75
0074.70	45499.99483	1406.90	1468919854.0	-1347.61
0074.83	43331.83295	1406.77	1477719851.0	-1347.48
0074.93	40299.99542	1406.67	1486519852.0	-1347.38
0075.03	38809.08650	1406.57	1495319853.0	-1347.28
0075.10	38381.81818	1406.50	1504119853.0	-1347.21
0075.16	-260622.78651	1406.44	1512919851.0	-1347.15
0075.25	36168.16538	1406.35	1521719855.0	-1347.06
0075.33	34336.39095	1406.27	1530519848.0	-1346.98
0075.41	33386.36364	1406.19	1539319848.0	-1346.90
0075.50	31586.36364	1406.10	1548119848.0	-1346.81
0075.58	31277.26562	1406.02	1556919850.0	-1346.73
0075.67	29595.44109	1405.93	1565719854.0	-1346.64
0075.77	28545.46752	1405.83	1574519850.0	-1346.54
0075.86	27845.43556	1405.74	1583319856.0	-1346.45
0075.95	27440.91845	1405.65	1592119853.0	-1346.36
0076.02	27313.64878	1405.58	1600919849.0	-1346.29
0076.11	26781.82427	1405.49	1609719847.0	-1346.20
0076.19	25799.98534	1405.41	1618519852.0	-1346.12
0076.28	24895.46020	1405.32	1627319850.0	-1346.04
0076.36	25381.80953	1405.24	1636119853.0	-1345.95
0076.45	25300.00863	1405.15	1644919850.0	-1345.86
0076.52	24413.63359	1405.08	1653719851.0	-1345.79
0076.61	24327.26996	1404.99	1662519852.0	-1345.71
0076.69	24345.46008	1404.91	1671319850.0	-1345.62
0076.79	23386.36364	1404.81	1680119850.0	-1345.52
0076.89	22827.27792	1404.71	1688919848.0	-1345.42
0076.97	22263.62624	1404.63	1697719852.0	-1345.34
0077.05	22790.91168	1404.55	1706519851.0	-1345.26
0077.13	22118.18182	1404.47	1715319851.0	-1345.18
0077.22	21877.27521	1404.38	1724119850.0	-1345.09
0077.31	22040.91160	1404.29	1732919849.0	-1345.00
0077.40	21431.81331	1404.20	1741719851.0	-1344.91
0077.48	21272.72002	1404.12	1750519854.0	-1344.83
0077.55	21109.08851	1404.05	1759319855.0	-1344.76
0077.65	20804.55491	1403.95	1768119851.0	-1344.66
0077.75	20554.55246	1403.85	1776919848.0	-1344.56
0077.84	19890.91135	1403.76	1785719847.0	-1344.47
0077.93	20113.62722	1403.67	1794519851.0	-1344.38
0078.00	19868.17956	1403.60	1803319852.0	-1344.31
0078.09	19699.99552	1403.51	1812119854.0	-1344.22
0078.16	19840.92036	1403.44	1820919849.0	-1344.15
0078.25	19668.17735	1403.35	1829719851.0	-1344.06
0078.33	20086.36820	1403.27	1838519849.0	-1343.98
0078.41	19381.81818	1403.19	1847319849.0	-1343.90
0078.53	19122.72510	1403.07	1856119850.0	-1343.78
0078.67	18936.36579	1402.93	1864919849.0	-1343.64
0078.81	18436.36573	1402.79	1873719848.0	-1343.50
0078.92	19231.81163	1402.68	1882519851.0	-1343.39
0079.00	18222.71692	1402.60	1891319856.0	-1343.31
0079.06	18413.65310	1402.54	1900119848.0	-1343.25
0079.12	18486.35943	1402.48	1908919850.0	-1343.19
0079.20	18663.63424	1402.40	1917719851.0	-1343.11
0079.28	18650.00000	1402.32	1926519851.0	-1343.03
0079.38	18127.27685	1402.22	1935319849.0	-1342.93
0079.46	18159.08678	1402.14	1944119851.0	-1342.85
0079.55	18263.62391	1402.05	1952919857.0	-1342.76
0079.65	18240.92775	1401.95	1961719848.0	-1342.66
0079.72	17968.17569	1401.88	1970519851.0	-1342.59
0079.82	18372.73562	1401.78	1979319847.0	-1342.49
0079.90	17586.35764	1401.70	1988119850.0	-1342.41
0079.98	17849.99797	1401.62	1996919851.0	-1342.33
0080.06	17868.18791	1401.54	2005719848.0	-1342.25
0080.15	17977.27273	1401.45	2014519848.0	-1342.16
0080.23	17422.71935	1401.37	2023319852.0	-1342.08
0080.32	17363.64623	1401.28	2032119847.0	-1341.99
0080.41	18227.27273	1401.19	2040919847.0	-1341.91
0080.47	18049.98769	1401.13	2049719853.0	-1341.84
0080.57	18004.53727	1401.03	2058519857.0	-1341.74
0080.67	17618.19583	1400.93	2067319850.0	-1341.64
0080.77	17913.63840	1400.83	2076119849.0	-1341.54
0080.87	17750.00403	1400.73	2084919847.0	-1341.44
0080.95	17540.90710	1400.65	2093719848.0	-1341.36
0081.02	18172.72314	1400.58	2102519850.0	-1341.29
0081.10	17990.90705	1400.50	2111319851.0	-1341.21
0081.19	18054.54340	1400.41	2120119852.0	-1341.12
0081.28	18113.63019	1400.32	2128919855.0	-1341.03
0081.36	17204.55327	1400.24	2137719851.0	-1340.95
0081.43	17354.54743	1400.17	2146519850.0	-1340.88
0081.53	17981.81410	1400.07	2155319852.0	-1340.78
0081.63	17590.91509	1399.97	2164119849.0	-1340.68
0081.72	17672.72928	1399.88	2172919848.0	-1340.59
0081.81	17536.36164	1399.79	2181719849.0	-1340.50
0081.89	17427.25886	1399.71	2190519856.0	-1340.42
0081.97	17613.65037	1399.63	2199319849.0	-1340.34
0082.05	17736.35759	1399.55	2208119852.0	-1340.26

#S C A N  C A N C E L L E D
