#XPS-spectrum

#Date/time: 		 2018-12-19__15-11-11


#AK pressure: 	can 	 mbar
#Pass energy: 	43.30 		 eV
#Volt. bias: 	0.0 		 V
#E_Photon: 	1486.7 		 V
#I_Emission: 	20 		 mA
#Counttime: 	12500 		 ms
#Prevoltage: 	0 		 V
#Workfunction: 	5.1 		 eV
#Samples/eV: 	1.25 		 1/s
#TDAC: 	System.Windows.Forms.TextBox, Text: 1.207 		 V
#V_Lens: 	System.Windows.Forms.TextBox, Text: 3800 		 V
#Slope: 	0.1000 		 Samples/eV
#V_Channelt.: 	2800 		 V
#Flow cooling: 	0,0 		 l/min
#Slit: 	C1 	




#E_bind 	 cps 	 E_kin 	 V_hemo


-0021.76	2663.63606	1503.36	302998743.0	-1444.08
-0020.95	3686.36447	1502.55	311798741.0	-1443.26
-0020.24	5145.45513	1501.84	320598740.0	-1442.55
-0019.48	5386.35996	1501.08	329398746.0	-1441.79
-0018.60	5136.36189	1500.20	338198749.0	-1440.91
-0017.66	5163.64106	1499.26	346998741.0	-1439.97
-0016.72	4963.63298	1498.32	355798747.0	-1439.03
-0015.82	4386.36364	1497.42	364598747.0	-1438.13
-0014.94	3436.36520	1496.54	373398743.0	-1437.25
-0014.05	2822.72824	1495.65	382198740.0	-1436.36
-0013.17	2677.27212	1494.77	390998742.0	-1435.48
-0012.30	2504.54460	1493.90	399798745.0	-1434.61
-0011.44	2613.63755	1493.04	408598741.0	-1433.75
-0010.55	2522.72584	1492.15	417398746.0	-1432.86
-0009.66	2740.90971	1491.26	426198744.0	-1431.97
-0008.80	2827.27273	1490.40	434998744.0	-1431.11
-0007.95	2981.81818	1489.55	443798744.0	-1430.27
-0007.06	2999.99932	1488.66	452598746.0	-1429.38
-0006.12	3086.36504	1487.72	461398742.0	-1428.43
-0005.22	3140.90909	1486.82	470198742.0	-1427.53
-0004.34	3259.08943	1485.94	478998746.0	-1426.65
-0003.49	3063.63636	1485.09	487798746.0	-1425.80
-0002.60	3054.54684	1484.20	496598742.0	-1424.91
-0001.71	3000.00034	1483.31	505398741.0	-1424.02
-0000.85	2954.54445	1482.45	514198744.0	-1423.16
0000.01	2859.09286	1481.59	522998738.0	-1422.30
0000.88	3127.26953	1480.72	531798747.0	-1421.43
0001.81	3231.82002	1479.79	540598742.0	-1420.50
0002.71	3095.45455	1478.89	549398742.0	-1419.60
0003.58	3154.54689	1478.02	558198738.0	-1418.73
0004.43	3027.27101	1477.17	566998743.0	-1417.88
0005.30	3154.54474	1476.30	575798745.0	-1417.01
0006.17	3090.90944	1475.43	584598744.0	-1416.14
0007.04	3218.18255	1474.56	593398742.0	-1415.28
0007.88	3022.72624	1473.72	602198745.0	-1414.43
0008.80	3304.54733	1472.80	610998740.0	-1413.51
0009.74	3272.72653	1471.86	619798742.0	-1412.57
0010.65	3463.63636	1470.95	628598742.0	-1411.67
0011.53	3390.90909	1470.07	637398742.0	-1410.78
0012.39	3154.54653	1469.21	646198739.0	-1409.92
0013.27	3390.90832	1468.33	654998741.0	-1409.04
0014.16	3181.81746	1467.44	663798743.0	-1408.15
0015.02	3245.45307	1466.58	672598747.0	-1407.29
0015.88	3422.72766	1465.72	681398746.0	-1406.43
0016.79	3359.09015	1464.81	690198748.0	-1405.52
0017.71	3459.09209	1463.89	698998745.0	-1404.60
0018.60	3404.54545	1463.00	707798745.0	-1403.71
0019.48	3268.18293	1462.12	716598742.0	-1402.83
0020.34	3136.36328	1461.26	725398743.0	-1401.97
0021.21	3318.18333	1460.39	734198739.0	-1401.10
0022.08	3527.27112	1459.52	742998743.0	-1400.23
0022.93	3309.08940	1458.67	751798747.0	-1399.38
0023.80	3386.36518	1457.80	760598743.0	-1398.51
0024.71	3563.63474	1456.89	769398747.0	-1397.60
0025.62	3427.27545	1455.98	778198740.0	-1396.69
0026.52	3740.90994	1455.08	786998738.0	-1395.79
0027.39	3749.99702	1454.21	795798745.0	-1394.92
0028.26	3959.12150	1453.34	804598677.0	-1394.05
0029.15	3809.06321	1452.45	813398741.0	-1393.17
0030.01	3995.46499	1451.59	822198718.0	-1392.30
0030.86	4259.07833	1450.74	830998744.0	-1391.45
0031.73	4077.27365	1449.87	839798742.0	-1390.58
0032.64	4499.99847	1448.96	848598745.0	-1389.67
0033.56	4713.63797	1448.04	857398742.0	-1388.75
0034.44	4918.18405	1447.16	866198738.0	-1387.87
0035.29	4609.09039	1446.31	874998739.0	-1387.02
0036.15	4618.17972	1445.45	883798743.0	-1386.16
0037.04	4372.72777	1444.56	892598742.0	-1385.27
0037.91	4440.90808	1443.69	901398744.0	-1384.41
0038.74	4290.91007	1442.86	910198742.0	-1383.57
0039.61	4477.27222	1441.99	918998743.0	-1382.70
0040.57	4095.45408	1441.03	927798744.0	-1381.74
0041.52	4172.72538	1440.08	936598748.0	-1380.79
0042.41	4200.00286	1439.19	945398742.0	-1379.90
0043.28	4213.63732	1438.32	954198740.0	-1379.03
0044.15	4309.08601	1437.45	962998750.0	-1378.16
0045.04	4245.45985	1436.56	971798739.0	-1377.27
0045.91	4086.36085	1435.69	980598745.0	-1376.40
0046.77	4304.54692	1434.83	989398742.0	-1375.54
0047.65	4645.45191	1433.95	998198747.0	-1374.67
0048.58	5059.09091	1433.02	1006998747.0	-1373.73
0049.49	6059.09504	1432.11	1015798741.0	-1372.82
0050.37	6499.99557	1431.23	1024598747.0	-1371.94
0051.22	7559.09520	1430.38	1033398742.0	-1371.09
0052.09	7599.99395	1429.51	1042198749.0	-1370.22
0052.97	6695.45835	1428.63	1050998744.0	-1369.34
0053.84	6663.63636	1427.76	1059798744.0	-1368.47
0054.71	7340.91159	1426.89	1068598741.0	-1367.61
0055.59	7363.63218	1426.01	1077398746.0	-1366.72
0056.51	6322.73015	1425.09	1086198742.0	-1365.80
0057.41	6072.72727	1424.19	1094998742.0	-1364.90
0058.31	6931.82133	1423.29	1103798738.0	-1364.00
0059.18	8768.17285	1422.42	1112598747.0	-1363.13
0060.06	19400.00000	1421.54	1121398747.0	-1362.25
0060.94	40050.03186	1420.66	1130198740.0	-1361.37
0061.81	36322.73140	1419.79	1138998739.0	-1360.50
0062.67	19072.71644	1418.93	1147798744.0	-1359.64
0063.56	18086.35336	1418.04	1156598749.0	-1358.75
0064.47	33336.39015	1417.13	1165398742.0	-1357.84
0065.37	34722.71149	1416.23	1174198746.0	-1356.94
0066.25	19331.82477	1415.35	1182998743.0	-1356.07
0067.11	13018.17886	1414.49	1191798745.0	-1355.20
0067.97	12063.64596	1413.63	1200598738.0	-1354.34
0068.84	10686.36121	1412.76	1209398740.0	-1353.47
0069.70	10522.72129	1411.90	1218198745.0	-1352.61
0070.55	10577.27153	1411.05	1226998746.0	-1351.76
0071.45	11377.27531	1410.15	1235798744.0	-1350.86
0072.38	11113.63510	1409.22	1244598745.0	-1349.93
0073.29	11345.45455	1408.31	1253398745.0	-1349.02
0074.18	11863.64041	1407.42	1262198742.0	-1348.14
0075.04	11890.90639	1406.56	1270998744.0	-1347.27
0075.94	11954.55225	1405.66	1279798739.0	-1346.37
0076.82	12036.35680	1404.78	1288598744.0	-1345.49
0077.68	12809.09236	1403.92	1297398743.0	-1344.63
0078.53	12540.90054	1403.07	1306198749.0	-1343.78
0079.44	12668.18902	1402.16	1314998744.0	-1342.87
0080.37	13177.26973	1401.23	1323798746.0	-1341.94
0081.27	13422.73032	1400.33	1332598744.0	-1341.04
0082.14	14345.45781	1399.46	1341398742.0	-1340.17
0083.00	13913.62371	1398.60	1350198750.0	-1339.31
0083.88	13945.47198	1397.72	1358998739.0	-1338.43
0084.75	14436.36036	1396.85	1367798741.0	-1337.57
0085.60	13977.26796	1396.00	1376598744.0	-1336.72
0086.45	14168.18987	1395.15	1385398739.0	-1335.86
0087.36	15227.26581	1394.24	1394198743.0	-1334.95
0088.29	14768.18014	1393.31	1402998744.0	-1334.02
0089.20	14736.36196	1392.40	1411798745.0	-1333.11
0090.07	14559.09422	1391.53	1420598743.0	-1332.24
0090.92	14186.36686	1390.68	1429398741.0	-1331.39
0091.81	14681.81651	1389.79	1438198742.0	-1330.50
0092.68	14522.73222	1388.92	1446998739.0	-1329.63
0093.54	13999.99364	1388.06	1455798743.0	-1328.77
0094.40	14500.00165	1387.20	1464598742.0	-1327.91
0095.30	13759.09404	1386.30	1473398740.0	-1327.01
0096.23	13209.08490	1385.37	1482198744.0	-1326.09
0097.12	13859.10036	1384.48	1490998738.0	-1325.19
0097.97	13277.26518	1383.63	1499798743.0	-1324.34
0098.82	14159.09413	1382.78	1508598741.0	-1323.49
0099.63	13831.81975	1381.97	1517398740.0	-1322.68
0100.49	14090.90589	1381.11	1526198742.0	-1321.82
0101.34	13627.27428	1380.26	1534998741.0	-1320.97
0102.21	13727.26181	1379.39	1543798748.0	-1320.10
0103.14	13781.81975	1378.46	1552598747.0	-1319.17
0104.07	13272.73029	1377.53	1561398745.0	-1318.24
0104.98	13754.55483	1376.62	1570198739.0	-1317.33
0105.85	13554.53313	1375.75	1578998747.0	-1316.46
0106.72	13845.45927	1374.88	1587798744.0	-1315.59
0107.60	13618.17872	1374.00	1596598746.0	-1314.71
0108.47	13259.09995	1373.13	1605398740.0	-1313.84
0109.35	12945.45160	1372.25	1614198742.0	-1312.97
0110.22	13872.73043	1371.38	1622998740.0	-1312.09
0111.15	13649.99535	1370.45	1631798743.0	-1311.16
0112.05	13604.54545	1369.55	1640598743.0	-1310.26
0112.93	13213.63486	1368.67	1649398744.0	-1309.38
0113.79	13718.17870	1367.81	1658198746.0	-1308.52
0114.67	13195.45904	1366.93	1666998743.0	-1307.65
0115.55	13454.55004	1366.05	1675798740.0	-1306.76
0116.41	12954.54545	1365.19	1684598740.0	-1305.90
0117.26	13554.53929	1364.34	1693398744.0	-1305.05
0118.14	13136.36811	1363.46	1702198741.0	-1304.17
0119.07	13122.72280	1362.53	1710998744.0	-1303.25
0119.98	13822.72256	1361.62	1719798747.0	-1302.33
0120.86	13545.46378	1360.74	1728598741.0	-1301.45
0121.73	13099.99107	1359.87	1737398747.0	-1300.58
0122.61	13036.36956	1358.99	1746198743.0	-1299.70
0123.49	13327.27727	1358.11	1754998740.0	-1298.82
0124.35	12927.27126	1357.25	1763798741.0	-1297.96
0125.21	13177.27273	1356.39	1772598741.0	-1297.10
0126.09	13240.90608	1355.51	1781398743.0	-1296.22
0127.02	13181.81668	1354.58	1790198744.0	-1295.30
0127.92	12909.08504	1353.68	1798998748.0	-1294.39
0128.79	13181.83017	1352.81	1807798740.0	-1293.52
0129.64	12940.90468	1351.96	1816598743.0	-1292.67
0130.51	12968.18329	1351.09	1825398742.0	-1291.80
0131.39	13113.63487	1350.21	1834198743.0	-1290.92
0132.25	12999.99409	1349.35	1842998747.0	-1290.06
0133.10	12918.19063	1348.50	1851798741.0	-1289.21
0133.99	12672.73303	1347.61	1860598737.0	-1288.32
0134.92	12890.90323	1346.68	1869398741.0	-1287.39
0135.85	13031.81522	1345.75	1878198743.0	-1286.46
0136.74	13145.45006	1344.86	1886998746.0	-1285.57
0137.60	12772.73598	1344.00	1895798740.0	-1284.71
0138.47	12781.81382	1343.13	1904598743.0	-1283.84
0139.34	12913.63049	1342.26	1913398747.0	-1282.97
0140.21	13249.99699	1341.39	1922198749.0	-1282.10
0141.07	12977.27568	1340.53	1930998747.0	-1281.24
0141.97	13118.19076	1339.63	1939798741.0	-1280.34
0142.89	12809.07926	1338.71	1948598749.0	-1279.42
0143.78	12886.36803	1337.82	1957398746.0	-1278.53
0144.66	12968.18477	1336.94	1966198744.0	-1277.65
0145.51	13145.45305	1336.09	1974998745.0	-1276.80
0146.37	12868.19644	1335.23	1983798735.0	-1275.94
0147.25	13049.98517	1334.35	1992598745.0	-1275.06
0148.12	12731.81963	1333.48	2001398744.0	-1274.19
0148.97	12586.36650	1332.63	2010198742.0	-1273.34
0149.85	12390.90909	1331.75	2018998742.0	-1272.46
0150.78	12195.45455	1330.82	2027798742.0	-1271.53
0151.69	12872.73166	1329.91	2036598739.0	-1270.62
0152.57	12254.54406	1329.03	2045398740.0	-1269.74
0153.44	12418.17053	1328.16	2054198748.0	-1268.87
0154.32	11968.18726	1327.28	2062998744.0	-1267.99
0155.18	11940.91588	1326.42	2071798739.0	-1267.13
0156.04	12172.71897	1325.56	2080598745.0	-1266.27
0156.88	12404.55250	1324.72	2089398740.0	-1265.43
0157.80	12159.08815	1323.80	2098198742.0	-1264.51
0158.72	12240.90074	1322.88	2106998748.0	-1263.59
0159.62	12104.55233	1321.98	2115798743.0	-1262.69
0160.47	12181.81403	1321.13	2124598746.0	-1261.84
0161.33	12227.28384	1320.27	2133398738.0	-1260.98
0162.20	12359.09231	1319.40	2142198737.0	-1260.11
0163.05	12081.81132	1318.55	2150998742.0	-1259.26
0163.91	12540.90624	1317.69	2159798744.0	-1258.40
0164.76	12290.91328	1316.84	2168598741.0	-1257.55
0165.71	12249.98886	1315.89	2177398749.0	-1256.60
0166.65	11850.01077	1314.95	2186198741.0	-1255.66
0167.57	11559.08828	1314.03	2194998743.0	-1254.74
0168.44	12400.00000	1313.16	2203798743.0	-1253.87
0169.31	12099.99725	1312.29	2212598745.0	-1253.00
0170.19	11809.12580	1311.41	2221398719.0	-1252.12
0171.06	11945.42197	1310.54	2230198743.0	-1251.25
0171.93	11245.45327	1309.67	2238998744.0	-1250.39
0172.79	11981.82090	1308.81	2247798742.0	-1249.52
0173.71	11640.91041	1307.89	2256598741.0	-1248.60
0174.65	11804.53875	1306.95	2265398746.0	-1247.67
0175.53	12118.18320	1306.07	2274198745.0	-1246.78
0176.39	11981.81954	1305.21	2282998744.0	-1245.92
0177.25	11963.63500	1304.35	2291798745.0	-1245.06
0178.13	11600.00395	1303.47	2300598742.0	-1244.18
0179.01	11840.90909	1302.59	2309398742.0	-1243.30
0179.87	11554.54152	1301.73	2318198745.0	-1242.44
0180.72	11690.91440	1300.88	2326998741.0	-1241.59
0181.65	11495.44671	1299.95	2335798747.0	-1240.66
0182.57	11395.46102	1299.03	2344598742.0	-1239.74
0183.47	11072.72727	1298.13	2353398742.0	-1238.84
0184.34	11645.45322	1297.26	2362198743.0	-1237.97
0185.20	11359.09349	1296.40	2370998741.0	-1237.11
0186.08	11595.45191	1295.52	2379798743.0	-1236.23
0186.96	11381.82077	1294.64	2388598741.0	-1235.35
0187.82	11195.45709	1293.78	2397398739.0	-1234.49
0188.69	11177.27146	1292.91	2406198740.0	-1233.62
0189.62	11390.90521	1291.98	2414998743.0	-1232.70
0190.53	11513.64683	1291.07	2423798735.0	-1231.79
0191.41	11122.71843	1290.19	2432598742.0	-1230.90
0192.26	11349.99742	1289.34	2441398744.0	-1230.05
0193.13	11077.27399	1288.47	2450198743.0	-1229.18
0193.99	11268.17670	1287.61	2458998747.0	-1228.32
0194.85	11290.91679	1286.75	2467798741.0	-1227.46
0195.71	11354.53642	1285.89	2476598748.0	-1226.60
0196.59	10877.27520	1285.01	2485398746.0	-1225.72
0197.53	11068.18559	1284.07	2494198743.0	-1224.78
0198.44	10922.72231	1283.16	2502998747.0	-1223.87
0199.34	11000.00500	1282.26	2511798743.0	-1222.97
0200.21	10863.62896	1281.39	2520598749.0	-1222.10
0201.08	10859.10201	1280.52	2529398740.0	-1221.23
0201.97	10968.17559	1279.63	2538198745.0	-1220.34
0202.82	10868.19170	1278.78	2546998737.0	-1219.49
0203.69	10931.81197	1277.91	2555798742.0	-1218.62
0204.59	10899.99876	1277.01	2564598743.0	-1217.72
0205.52	10386.36364	1276.08	2573398743.0	-1216.79
0206.42	10877.26902	1275.18	2582198746.0	-1215.89
0207.29	11272.72471	1274.31	2590998748.0	-1215.02
0208.14	10854.55162	1273.46	2599798743.0	-1214.17
0209.02	10586.36123	1272.58	2608598745.0	-1213.29
0209.90	10718.18060	1271.70	2617398746.0	-1212.41
0210.75	10504.54545	1270.85	2626198746.0	-1211.56
0211.60	10877.27644	1270.00	2634998743.0	-1210.71
0212.50	10827.27396	1269.10	2643798742.0	-1209.81
0213.43	10281.81585	1268.17	2652598744.0	-1208.89
0214.33	10400.00000	1267.27	2661398744.0	-1207.98
0215.21	10695.46305	1266.39	2670198737.0	-1207.10
0216.07	10640.90304	1265.53	2678998742.0	-1206.24
0216.96	10595.44973	1264.64	2687798746.0	-1205.36
0217.84	10563.63996	1263.76	2696598743.0	-1204.47
0218.70	10200.00232	1262.90	2705398741.0	-1203.61
0219.55	10181.81471	1262.05	2714198744.0	-1202.76
0220.44	10413.63755	1261.16	2722998743.0	-1201.87
0221.37	10354.54545	1260.23	2731798743.0	-1200.94
0222.25	10040.90909	1259.35	2740598743.0	-1200.06
0223.12	10472.72846	1258.48	2749398742.0	-1199.19
0223.97	10409.09091	1257.63	2758198742.0	-1198.34
0224.84	10313.63988	1256.76	2766998739.0	-1197.47
0225.72	10163.62597	1255.88	2775798748.0	-1196.60
0226.57	10009.09660	1255.03	2784598743.0	-1195.74
0227.41	9759.08980	1254.19	2793398744.0	-1194.90
0228.33	9854.54769	1253.27	2802198742.0	-1193.98
0229.28	10200.00232	1252.32	2810998740.0	-1193.03
0230.20	10190.90909	1251.40	2819798740.0	-1192.11
0231.08	10045.45112	1250.52	2828598743.0	-1191.23
0231.93	9618.18182	1249.67	2837398743.0	-1190.38
0232.81	10136.35673	1248.79	2846198749.0	-1189.50
0233.68	10140.92061	1247.92	2854998739.0	-1188.63
0234.56	9772.72172	1247.04	2863798744.0	-1187.75
0235.43	9740.91352	1246.17	2872598740.0	-1186.88
0236.34	9649.99671	1245.26	2881398743.0	-1185.97
0237.26	10009.09091	1244.34	2890198743.0	-1185.05
0238.15	9518.18506	1243.45	2898998740.0	-1184.16
0239.02	10099.99770	1242.58	2907798742.0	-1183.29
0239.88	9700.00110	1241.72	2916598741.0	-1182.43
0240.75	9990.90001	1240.85	2925398749.0	-1181.56
0241.62	9872.73176	1239.98	2934198745.0	-1180.69
0242.47	9686.36804	1239.13	2942998741.0	-1179.84
0243.34	10145.44648	1238.26	2951798748.0	-1178.97
0244.26	9936.37154	1237.34	2960598741.0	-1178.05
0245.18	10240.90676	1236.42	2969398743.0	-1177.13
0246.08	9868.18294	1235.52	2978198742.0	-1176.23
0246.96	9909.10330	1234.64	2986998731.0	-1175.36
0247.82	9645.43591	1233.78	2995798748.0	-1174.49
0248.70	9809.09537	1232.90	3004598744.0	-1173.61
0249.57	9845.45678	1232.03	3013398742.0	-1172.74
0250.42	10000.00227	1231.18	3022198740.0	-1171.89
0251.30	10486.36125	1230.30	3030998742.0	-1171.01
0252.22	9868.18070	1229.38	3039798743.0	-1170.09
0253.12	9827.27384	1228.48	3048598742.0	-1169.19
0254.01	9609.09200	1227.59	3057398741.0	-1168.30
0254.86	9768.17960	1226.74	3066198743.0	-1167.45
0255.71	9359.09304	1225.89	3074998741.0	-1166.60
0256.60	9754.54656	1225.00	3083798740.0	-1165.71
0257.46	9940.89779	1224.14	3092598750.0	-1164.85
0258.31	9595.46327	1223.29	3101398742.0	-1164.00
0259.19	10181.81818	1222.41	3110198742.0	-1163.12
0260.12	11981.81546	1221.48	3118998744.0	-1162.19
0261.06	16645.45265	1220.54	3127798745.0	-1161.25
0261.95	18504.54335	1219.65	3136598746.0	-1160.36
0262.80	16009.09091	1218.80	3145398746.0	-1159.51
0263.67	13050.00890	1217.93	3154198740.0	-1158.64
0264.55	11118.18055	1217.05	3162998741.0	-1157.76
0265.43	10899.99876	1216.17	3171798742.0	-1156.88
0266.29	10254.54429	1215.31	3180598743.0	-1156.02
0267.16	10259.09441	1214.44	3189398740.0	-1155.15
0268.09	10254.54312	1213.51	3198198742.0	-1154.22
0268.99	10140.90679	1212.61	3206998744.0	-1153.32
0269.87	10327.27155	1211.73	3215798745.0	-1152.44
0270.72	9645.45564	1210.88	3224598744.0	-1151.59
0271.59	9972.72614	1210.01	3233398745.0	-1150.72
0272.46	9631.82147	1209.14	3242198742.0	-1149.85
0273.33	9881.82155	1208.27	3250998739.0	-1148.98
0274.19	9804.54323	1207.41	3259798741.0	-1148.12
0275.07	9822.72616	1206.53	3268598742.0	-1147.24
0276.00	10072.72956	1205.60	3277398740.0	-1146.31
0276.91	9940.90118	1204.69	3286198747.0	-1145.40
0277.80	9863.63636	1203.80	3294998747.0	-1144.51
0278.67	9690.92120	1202.93	3303798736.0	-1143.64
0279.53	10018.16816	1202.07	3312598748.0	-1142.78
0280.40	9936.36928	1201.20	3321398743.0	-1141.91
0281.27	10363.63401	1200.33	3330198745.0	-1141.04
0282.12	10290.91260	1199.48	3338998742.0	-1140.19
0283.02	9945.47150	1198.58	3347798727.0	-1139.29
0283.94	10140.89411	1197.66	3356598740.0	-1138.38
0284.83	10381.80874	1196.77	3365398748.0	-1137.49
0285.69	10418.19011	1195.91	3374198741.0	-1136.62
0286.54	10500.00119	1195.06	3382998740.0	-1135.77
0287.41	10531.80861	1194.19	3391798748.0	-1134.90
0288.28	10609.09935	1193.32	3400598741.0	-1134.03
0289.13	10468.18182	1192.47	3409398741.0	-1133.18
0289.99	10304.53843	1191.61	3418198747.0	-1132.32
0290.91	10459.09685	1190.69	3426998742.0	-1131.40
0291.86	9745.45455	1189.74	3435798742.0	-1130.45
0292.78	10181.81934	1188.82	3444598741.0	-1129.53
0293.66	10049.99543	1187.94	3453398745.0	-1128.65
0294.53	10299.99766	1187.07	3462198747.0	-1127.78
0295.41	10200.00464	1186.19	3470998743.0	-1126.90
0296.29	10354.54898	1185.31	3479798740.0	-1126.03
0297.12	10686.35878	1184.48	3488598744.0	-1125.20
0297.94	10518.18062	1183.66	3497398745.0	-1124.37
0298.85	10518.18540	1182.75	3506198742.0	-1123.46
0299.79	10459.08734	1181.81	3514998745.0	-1122.52
0300.69	10422.73201	1180.91	3523798741.0	-1121.62
0301.54	10827.27027	1180.06	3532598743.0	-1120.77
0302.40	10868.17935	1179.20	3541398745.0	-1119.91
0303.29	11222.72982	1178.31	3550198743.0	-1119.03
0304.16	11354.54416	1177.44	3558998744.0	-1118.15
0305.02	11113.62879	1176.58	3567798750.0	-1117.29
0305.87	10909.09339	1175.73	3576598748.0	-1116.44
0306.78	11350.00516	1174.82	3585398744.0	-1115.53
0307.71	11895.45590	1173.89	3594198743.0	-1114.60
0308.61	12463.63495	1172.99	3602998744.0	-1113.70
0309.49	13204.55296	1172.11	3611798739.0	-1112.82
0310.34	15013.63295	1171.26	3620598741.0	-1111.97
0311.22	16909.09091	1170.38	3629398741.0	-1111.09
0312.09	18318.17765	1169.51	3638198743.0	-1110.22
0312.97	18459.09091	1168.63	3646998743.0	-1109.34
0313.82	17936.36975	1167.78	3655798740.0	-1108.49
0314.73	15472.71321	1166.87	3664598748.0	-1107.58
0315.65	14986.36704	1165.95	3673398746.0	-1106.66
0316.54	13513.64251	1165.06	3682198742.0	-1105.77
0317.40	13286.36364	1164.20	3690998742.0	-1104.91
0318.26	12427.27132	1163.34	3699798743.0	-1104.06
0319.13	12977.28895	1162.47	3708598732.0	-1103.19
0319.99	13063.62003	1161.61	3717398743.0	-1102.32
0320.84	12545.45597	1160.76	3726198742.0	-1101.47
0321.71	12590.91338	1159.89	3734998739.0	-1100.60
0322.64	12563.63065	1158.96	3743798743.0	-1099.68
0323.56	12918.18182	1158.04	3752598743.0	-1098.75
0324.46	12831.81527	1157.14	3761398745.0	-1097.85
0325.34	13100.00893	1156.26	3770198739.0	-1096.98
0326.21	13368.16663	1155.39	3778998749.0	-1096.10
0327.09	13250.01205	1154.51	3787798741.0	-1095.22
0327.96	14709.08088	1153.64	3796598747.0	-1094.35
0328.83	15550.00530	1152.77	3805398744.0	-1093.48
0329.70	17054.54933	1151.90	3814198742.0	-1092.61
0330.63	17640.90709	1150.97	3822998743.0	-1091.68
0331.53	17563.64036	1150.07	3831798741.0	-1090.78
0332.42	16549.99812	1149.18	3840598742.0	-1089.90
0333.28	15527.26038	1148.32	3849398749.0	-1089.03
0334.15	15363.64509	1147.45	3858198744.0	-1088.16
0335.01	14040.91707	1146.59	3866998739.0	-1087.30
0335.88	13904.53913	1145.72	3875798743.0	-1086.43
0336.72	14309.09254	1144.88	3884598742.0	-1085.59
0337.61	13827.26644	1143.99	3893398746.0	-1084.70
0338.54	14081.82458	1143.06	3902198742.0	-1083.77
0339.45	14277.26462	1142.15	3910998747.0	-1082.86
0340.33	14159.10056	1141.27	3919798741.0	-1081.98
0341.19	13336.36364	1140.41	3928598741.0	-1081.12
0342.07	13895.45770	1139.53	3937398739.0	-1080.24
0342.95	13518.18028	1138.65	3946198740.0	-1079.36
0343.81	13095.45157	1137.79	3954998742.0	-1078.50
0344.67	13390.89996	1136.93	3963798748.0	-1077.64
0345.55	13868.19758	1136.05	3972598738.0	-1076.76
0346.48	13263.62732	1135.12	3981398744.0	-1075.83
0347.37	13363.63788	1134.23	3990198743.0	-1074.94
0348.24	13518.17567	1133.36	3998998747.0	-1074.07
0349.08	13200.00300	1132.52	4007798745.0	-1073.23
0349.96	13295.45455	1131.64	4016598745.0	-1072.36
0350.83	13522.73649	1130.77	4025398739.0	-1071.48
0351.69	13381.81210	1129.91	4034198743.0	-1070.62
0352.54	13877.27115	1129.06	4042998744.0	-1069.77
0353.43	13077.27719	1128.17	4051798741.0	-1068.88
0354.37	12918.17301	1127.23	4060598747.0	-1067.94
0355.30	13400.00761	1126.30	4069398742.0	-1067.01
0356.20	12768.18327	1125.40	4078198741.0	-1066.11
0357.05	12945.45013	1124.55	4086998744.0	-1065.26
0357.92	13100.00595	1123.68	4095798740.0	-1064.39
0358.80	12904.53079	1122.80	4104598750.0	-1063.51
0359.67	13054.57067	1121.93	4113398733.0	-1062.64
0360.53	13013.62158	1121.07	4122198743.0	-1061.78
0361.43	12940.91350	1120.17	4130998740.0	-1060.88
0362.35	12945.44278	1119.25	4139798748.0	-1059.96
0363.26	12881.82989	1118.34	4148598740.0	-1059.05
0364.14	13227.26671	1117.46	4157398744.0	-1058.17
0364.99	12854.54545	1116.61	4166198744.0	-1057.32
0365.85	12863.64513	1115.75	4174998738.0	-1056.46
0366.72	12718.33213	1114.88	4183798634.0	-1055.59
0367.59	12608.93616	1114.01	4192598742.0	-1054.72
0368.45	12199.99445	1113.15	4201398746.0	-1053.86
0369.35	12500.00568	1112.25	4210198742.0	-1052.96
0370.27	12786.36364	1111.33	4218998742.0	-1052.04
0371.18	12236.36503	1110.42	4227798741.0	-1051.14
0372.06	11936.36092	1109.54	4236598743.0	-1050.25
0372.91	12450.00566	1108.69	4245398739.0	-1049.40
0373.79	12127.26032	1107.81	4254198748.0	-1048.52
0374.66	12559.09662	1106.94	4262998744.0	-1047.65
0375.51	12322.73147	1106.09	4271798741.0	-1046.80
0376.38	12186.35533	1105.22	4280598747.0	-1045.93
0377.30	12318.18882	1104.30	4289398742.0	-1045.01
0378.20	-25.73861	1103.40	3231447.0	-1044.11
0379.09	12604.53973	1102.51	12031451.0	-1043.23
0379.95	11918.18994	1101.65	20831445.0	-1042.36
0380.82	11981.81546	1100.78	29631447.0	-1041.49
0381.70	11863.63502	1099.90	38431448.0	-1040.61
0382.56	12204.55100	1099.04	47231444.0	-1039.75
0383.40	12118.17906	1098.20	56031446.0	-1038.91
0384.27	11736.36497	1097.33	64831445.0	-1038.04
0385.20	11890.90909	1096.40	73631445.0	-1037.11
0386.12	11913.63501	1095.48	82431446.0	-1036.19
0387.03	11136.36364	1094.57	91231446.0	-1035.28
0387.89	11881.82358	1093.71	100031442.0	-1034.42
0388.76	11672.71268	1092.84	108831453.0	-1033.55
0389.64	11704.54811	1091.96	117631451.0	-1032.67
0390.51	11509.10006	1091.09	126431444.0	-1031.80
0391.38	11195.44946	1090.22	135231448.0	-1030.93
0392.24	11349.99871	1089.36	144031449.0	-1030.07
0393.15	11559.09616	1088.45	152831445.0	-1029.16
0394.07	11368.17923	1087.53	161631447.0	-1028.24
0394.96	11218.18182	1086.64	170431447.0	-1027.35
0395.81	10822.72235	1085.79	179231451.0	-1026.50
0396.66	11495.46238	1084.94	188031445.0	-1025.65
0397.54	11145.44948	1084.06	196831449.0	-1024.77
0398.41	11027.26646	1083.19	205631454.0	-1023.90
0399.27	10877.28138	1082.33	214431447.0	-1023.05
0400.12	11359.09091	1081.48	223231447.0	-1022.19
0401.04	11018.18057	1080.56	232031448.0	-1021.27
0401.96	11027.26771	1079.64	240831452.0	-1020.35
0402.85	10959.09838	1078.75	249631446.0	-1019.46
0403.72	10409.09327	1077.88	258431444.0	-1018.59
0404.58	10749.99511	1077.02	267231448.0	-1017.73
0405.46	10786.35751	1076.14	276031453.0	-1016.85
0406.33	11159.09471	1075.27	284831450.0	-1015.99
0407.19	10800.00736	1074.41	293631444.0	-1015.12
0408.05	10618.17217	1073.55	302431452.0	-1014.26
0408.96	10640.91876	1072.64	311231444.0	-1013.35
0409.87	10677.27030	1071.73	320031446.0	-1012.44
0410.75	10654.55030	1070.85	328831442.0	-1011.56
0411.60	10459.08497	1070.00	337631447.0	-1010.71
0412.46	10172.72727	1069.14	346431447.0	-1009.85
0413.32	10104.54660	1068.28	355231446.0	-1008.99
0414.18	10209.08627	1067.42	364031450.0	-1008.13
0415.04	10022.72955	1066.56	372831448.0	-1007.27
0415.94	10331.82757	1065.66	381631440.0	-1006.37
0416.90	9936.36025	1064.70	390431443.0	-1005.41
0417.84	10249.99534	1063.76	399231447.0	-1004.47
0418.73	10122.73072	1062.87	408031444.0	-1003.58
0419.60	10045.44770	1062.00	416831450.0	-1002.71
0420.47	10213.63404	1061.13	425631452.0	-1001.84
0421.34	9990.91590	1060.26	434431446.0	-1000.97
0422.20	10122.72612	1059.40	443231447.0	-1000.11
0423.08	9945.45568	1058.52	452031446.0	-0999.23
0423.97	9990.90682	1057.63	460831448.0	-0998.34
0424.91	9986.35910	1056.69	469631452.0	-0997.40
0425.81	9895.45792	1055.79	478431449.0	-0996.50
0426.68	9672.72398	1054.92	487231452.0	-0995.63
0427.54	10004.54659	1054.06	496031451.0	-0994.77
0428.42	9754.59090	1053.18	504831410.0	-0993.90
0429.29	9704.50796	1052.31	513631444.0	-0993.02
0430.15	10049.99772	1051.45	522431446.0	-0992.16
0430.99	9690.91129	1050.61	531231444.0	-0991.32
0431.89	9863.63524	1049.71	540031445.0	-0990.42
0432.83	9509.09091	1048.77	548831445.0	-0989.48
0433.74	9449.99893	1047.86	557631446.0	-0988.57
0434.61	9840.90909	1046.99	566431446.0	-0987.70
0435.48	9436.36471	1046.12	575231445.0	-0986.83
0436.36	9509.08659	1045.24	584031449.0	-0985.95
0437.25	9372.73260	1044.35	592831444.0	-0985.06
0438.11	9599.99673	1043.49	601631447.0	-0984.20
0438.97	9745.44901	1042.63	610431452.0	-0983.34
0439.86	9336.37000	1041.74	619231446.0	-0982.45
0440.79	9227.27168	1040.81	628031447.0	-0981.52
0441.69	9609.09200	1039.91	636831446.0	-0980.62
0442.56	8881.81616	1039.04	645631448.0	-0979.75
0443.41	9349.99788	1038.19	654431450.0	-0978.91
0444.28	8804.55446	1037.32	663231441.0	-0978.03
0445.16	8863.62730	1036.44	672031450.0	-0977.15
0446.00	9127.27791	1035.60	680831445.0	-0976.31
0446.86	8849.99698	1034.74	689631448.0	-0975.45
0447.77	8909.09293	1033.83	698431446.0	-0974.54
0448.70	8981.81818	1032.90	707231446.0	-0973.61
0449.62	9090.90909	1031.98	716031446.0	-0972.69
0450.51	9172.84089	1031.09	724831337.0	-0971.81
0451.36	8636.25765	1030.24	733631445.0	-0970.95
0452.24	8699.99901	1029.36	742431446.0	-0970.07
0453.12	8668.18379	1028.48	751231444.0	-0969.19
0453.99	8399.99141	1027.61	760031453.0	-0968.32
0454.85	8581.82208	1026.75	768831449.0	-0967.46
0455.77	8850.00402	1025.83	777631445.0	-0966.54
0456.68	8781.81419	1024.92	786431449.0	-0965.63
0457.57	8872.73131	1024.03	795231445.0	-0964.74
0458.44	8536.35879	1023.16	804031450.0	-0963.87
0459.31	8295.45643	1022.29	812831448.0	-0963.00
0460.19	8531.81721	1021.41	821631449.0	-0962.12
0461.04	8149.99907	1020.56	830431450.0	-0961.27
0461.90	8109.09552	1019.70	839231445.0	-0960.41
0462.77	8177.27273	1018.83	848031445.0	-0959.54
0463.68	8254.54358	1017.92	856831447.0	-0958.63
0464.60	8177.28202	1017.00	865631437.0	-0957.71
0465.50	8354.53501	1016.10	874431448.0	-0956.82
0466.37	8313.63825	1015.23	883231446.0	-0955.94
0467.24	8027.26817	1014.36	892031451.0	-0955.07
0468.12	8350.00285	1013.48	900831448.0	-0954.19
0468.99	8377.27749	1012.61	909631443.0	-0953.32
0469.83	8354.54640	1011.77	918431442.0	-0952.48
0470.71	8145.44992	1010.89	927231447.0	-0951.61
0471.63	7545.45112	1009.97	936031451.0	-0950.68
0472.54	8077.28007	1009.06	944831443.0	-0949.78
0473.41	8222.72727	1008.19	953631443.0	-0948.90
0474.27	8345.45170	1007.33	962431446.0	-0948.04
0475.13	7949.99910	1006.47	971231447.0	-0947.18
0476.00	8059.09091	1005.60	980031447.0	-0946.31
0476.87	7536.36449	1004.73	988831446.0	-0945.44
0477.71	8031.81727	1003.89	997631447.0	-0944.60
0478.59	8286.36646	1003.01	1006431444.0	-0943.72
0479.52	7699.99913	1002.08	1015231445.0	-0942.79
0480.45	7927.29795	1001.15	1024031417.0	-0941.86
0481.36	7804.51796	1000.24	1032831448.0	-0940.95
0482.22	7949.99729	0999.38	1041631451.0	-0940.09
0483.08	7990.91636	0998.52	1050431443.0	-0939.23
0483.97	7759.08915	0997.63	1059231445.0	-0938.34
0484.84	7931.81728	0996.76	1068031446.0	-0937.47
0485.71	7731.81642	0995.89	1076831448.0	-0936.60
0486.59	7854.54635	0995.01	1085631447.0	-0935.72
0487.51	7568.18010	0994.09	1094431449.0	-0934.80
0488.43	7299.99834	0993.17	1103231451.0	-0933.88
0489.31	7450.00339	0992.29	1112031447.0	-0933.00
0490.16	7386.36280	0991.44	1120831448.0	-0932.15
0491.02	7240.90909	0990.58	1129631448.0	-0931.29
0491.91	7445.45624	0989.69	1138431446.0	-0930.41
0492.77	7709.08653	0988.83	1147231451.0	-0929.54
0493.63	7440.91078	0987.97	1156031449.0	-0928.68
0494.52	7418.18435	0987.08	1164831446.0	-0927.79
0495.38	7681.81644	0986.22	1173631448.0	-0926.93
0496.29	7290.91158	0985.31	1182431445.0	-0926.02
0497.18	7545.45455	0984.42	1191231445.0	-0925.13
0498.03	7299.99751	0983.57	1200031448.0	-0924.28
0498.91	7386.36699	0982.69	1208831444.0	-0923.40
0499.78	7672.72553	0981.82	1217631446.0	-0922.53
0500.65	7072.72888	0980.95	1226431444.0	-0921.66
0501.51	7481.81223	0980.09	1235231451.0	-0920.80
0502.41	7309.09174	0979.19	1244031450.0	-0919.90
0503.33	7172.72972	0978.27	1252831447.0	-0918.98
0504.22	7495.45455	0977.38	1261631447.0	-0918.09
0505.09	7400.00084	0976.51	1270431446.0	-0917.22
0505.95	7163.63392	0975.65	1279231449.0	-0916.36
0506.81	7390.91245	0974.79	1288031445.0	-0915.50
0507.69	7722.72727	0973.91	1296831445.0	-0914.62
0508.54	8540.90424	0973.06	1305631450.0	-0913.77
0509.40	8895.45252	0972.20	1314431452.0	-0912.91
0510.31	9604.54982	0971.29	1323231448.0	-0912.00
0511.24	8372.73108	0970.36	1332031444.0	-0911.07
0512.16	7704.54108	0969.44	1340831449.0	-0910.15
0513.03	7650.00522	0968.57	1349631443.0	-0909.28
0513.90	7245.44961	0967.70	1358431449.0	-0908.41
0514.78	7309.09340	0966.82	1367231446.0	-0907.53
0515.65	7172.72646	0965.95	1376031447.0	-0906.66
0516.51	7322.72478	0965.09	1384831450.0	-0905.80
0517.37	7459.09684	0964.23	1393631443.0	-0904.94
0518.28	7345.45204	0963.32	1402431446.0	-0904.03
0519.21	7109.09091	0962.39	1411231446.0	-0903.10
0520.10	7459.09260	0961.50	1420031444.0	-0902.21
0520.97	7672.72466	0960.63	1428831447.0	-0901.34
0521.82	7886.36274	0959.78	1437631448.0	-0900.49
0522.70	7913.63816	0958.90	1446431446.0	-0899.62
0523.57	7768.18005	0958.03	1455231448.0	-0898.74
0524.42	8059.09732	0957.18	1464031441.0	-0897.89
0525.28	8181.81539	0956.32	1472831444.0	-0897.03
0526.19	7672.72553	0955.41	1481631446.0	-0896.13
0527.11	8040.90452	0954.49	1490431451.0	-0895.20
0528.01	7795.45632	0953.59	1499231449.0	-0894.30
0528.87	7227.27519	0952.73	1508031446.0	-0893.44
0529.73	7463.63976	0951.87	1516831442.0	-0892.58
0530.61	7099.99516	0950.99	1525631448.0	-0891.70
0531.49	7204.54464	0950.11	1534431449.0	-0890.82
0532.35	7445.45962	0949.25	1543231443.0	-0889.96
0533.20	7136.35634	0948.40	1552031452.0	-0889.11
0534.11	6772.73343	0947.49	1560831444.0	-0888.20
0535.02	7304.54628	0946.58	1569631443.0	-0887.29
0535.92	7536.35850	0945.68	1578431449.0	-0886.39
0536.78	7090.90990	0944.82	1587231448.0	-0885.53
0537.63	7340.90409	0943.97	1596031454.0	-0884.68
0538.50	7322.73476	0943.10	1604831445.0	-0883.81
0539.37	7431.81818	0942.23	1613631445.0	-0882.95
0540.21	6904.54232	0941.39	1622431449.0	-0882.10
0541.07	7281.81984	0940.53	1631231447.0	-0881.24
0542.01	7040.90829	0939.59	1640031448.0	-0880.30
0542.96	6927.27037	0938.64	1648831451.0	-0879.35
0543.87	6672.72955	0937.73	1657631448.0	-0878.44
0544.74	6922.72649	0936.86	1666431449.0	-0877.57
0545.61	6877.27507	0935.99	1675231446.0	-0876.70
0546.49	7131.81737	0935.11	1684031447.0	-0875.82
0547.36	6786.36595	0934.24	1692831444.0	-0874.95
0548.22	7022.72568	0933.38	1701631446.0	-0874.09
0549.10	7227.27273	0932.50	1710431446.0	-0873.21
0550.03	7090.91070	0931.57	1719231444.0	-0872.28
0550.94	6972.72490	0930.66	1728031447.0	-0871.37
0551.81	6913.63401	0929.79	1736831450.0	-0870.50
0552.68	7090.91312	0928.92	1745631445.0	-0869.63
0553.55	6995.45534	0928.05	1754431444.0	-0868.76
0554.42	6818.17794	0927.18	1763231449.0	-0867.89
0555.28	6931.82054	0926.32	1772031446.0	-0867.03
0556.14	6572.72429	0925.46	1780831450.0	-0866.17
0557.02	6859.09792	0924.58	1789631441.0	-0865.29
0557.95	6854.54078	0923.65	1798431447.0	-0864.36
0558.87	6659.09167	0922.73	1807231446.0	-0863.44
0559.75	6704.54545	0921.85	1816031446.0	-0862.56
0560.61	6300.00072	0920.99	1824831445.0	-0861.70
0561.49	6795.45455	0920.11	1833631445.0	-0860.82
0562.38	6386.36364	0919.22	1842431445.0	-0859.93
0563.24	6499.99926	0918.36	1851231446.0	-0859.07
0564.10	6336.36076	0917.50	1860031450.0	-0858.21
0564.99	6640.91060	0916.61	1868831448.0	-0857.32
0565.91	6390.90473	0915.69	1877631454.0	-0856.40
0566.82	6409.09892	0914.78	1886431443.0	-0855.49
0567.68	6377.26693	0913.92	1895231451.0	-0854.63
0568.53	6545.45380	0913.07	1904031452.0	-0853.78
0569.40	6722.72651	0912.20	1912831453.0	-0852.91
0570.27	6409.09455	0911.33	1921631448.0	-0852.04
0571.14	6404.54837	0910.46	1930431444.0	-0851.17
0571.99	6345.45094	0909.61	1939231449.0	-0850.32
0572.88	6136.36643	0908.72	1948031445.0	-0849.43
0573.81	6322.72943	0907.79	1956831442.0	-0848.50
0574.72	6254.54545	0906.88	1965631442.0	-0847.59
0575.61	6163.63216	0905.99	1974431448.0	-0846.70
0576.47	6272.72727	0905.13	1983231448.0	-0845.84
0577.36	6290.90909	0904.24	1992031448.0	-0844.95
0578.24	6100.00277	0903.36	2000831444.0	-0844.07
0579.12	6295.46742	0902.48	2009631426.0	-0843.19
0579.96	6322.71506	0901.64	2018431443.0	-0842.35
0580.85	6109.08883	0900.75	2027231446.0	-0841.46
0581.77	6345.45238	0899.83	2036031449.0	-0840.54
0582.68	6045.45248	0898.92	2044831452.0	-0839.63
0583.56	6372.73234	0898.04	2053631445.0	-0838.75
0584.41	6240.90625	0897.19	2062431449.0	-0837.90
0585.28	5804.54941	0896.32	2071231443.0	-0837.03
0586.15	6022.72454	0895.45	2080031447.0	-0836.16
0587.01	6200.00211	0894.59	2088831444.0	-0835.30
0587.87	6086.36364	0893.73	2097631444.0	-0834.44
0588.77	6072.72589	0892.83	2106431446.0	-0833.54
0589.69	5631.81946	0891.91	2115231444.0	-0832.62
0590.59	5977.27069	0891.01	2124031447.0	-0831.72
0591.47	5868.17982	0890.13	2132831450.0	-0830.84
0592.33	5777.27010	0889.27	2141631454.0	-0829.98
0593.21	6109.09369	0888.39	2150431450.0	-0829.10
0594.08	5877.27473	0887.52	2159231447.0	-0828.23
0594.94	5945.45184	0886.66	2168031451.0	-0827.37
0595.79	5663.63701	0885.81	2176831450.0	-0826.52
0596.70	5518.18119	0884.90	2185631451.0	-0825.61
0597.62	5763.63898	0883.98	2194431447.0	-0824.69
0598.51	5731.81493	0883.09	2203231452.0	-0823.80
0599.37	5795.45718	0882.23	2212031448.0	-0822.94
0600.23	5690.90586	0881.37	2220831453.0	-0822.08
0601.10	5909.09494	0880.50	2229631447.0	-0821.21
0601.97	5695.45196	0879.63	2238431451.0	-0820.34
0602.81	5681.82141	0878.79	2247231446.0	-0819.50
0603.67	5718.18052	0877.93	2256031448.0	-0818.64
0604.61	5695.45325	0876.99	2264831450.0	-0817.70
0605.54	5804.54809	0876.06	2273631446.0	-0816.77
0606.45	5604.54545	0875.15	2282431446.0	-0815.86
0607.32	5836.36496	0874.28	2291231444.0	-0814.99
0608.18	6013.63431	0873.42	2300031447.0	-0814.13

#S C A N  C A N C E L L E D
